Crank_Angle_(deg)	MFB_(%)
0.000000	0.000000
14.275748	0.001001
15.802585	0.002002
16.808061	0.003003
17.572094	0.004004
18.186011	0.005005
18.702342	0.006006
19.150659	0.007007
19.545629	0.008008
19.901207	0.009009
20.222594	0.010010
20.521382	0.011011
20.799794	0.012012
21.063731	0.013013
21.314352	0.014014
21.552761	0.015015
21.781689	0.016016
22.001141	0.017017
22.216114	0.018018
22.424860	0.019019
22.625591	0.020020
22.819876	0.021021
23.010864	0.022022
23.197807	0.023023
23.380383	0.024024
23.558513	0.025025
23.733493	0.026026
23.903644	0.027027
24.071076	0.028028
24.236344	0.029029
24.396984	0.030030
24.555382	0.031031
24.708933	0.032032
24.861379	0.033033
25.012235	0.034034
25.162829	0.035035
25.311584	0.036036
25.459888	0.037037
25.605880	0.038038
25.751522	0.039039
25.896917	0.040040
26.039547	0.041041
26.181531	0.042042
26.322690	0.043043
26.463323	0.044044
26.602375	0.045045
26.740454	0.046046
26.877843	0.047047
27.015316	0.048048
27.148662	0.049049
27.284319	0.050050
27.419907	0.051051
27.554877	0.052052
27.690530	0.053053
27.826823	0.054054
27.963282	0.055055
28.099602	0.056056
28.236864	0.057057
28.373661	0.058058
28.510479	0.059059
28.648423	0.060060
28.784929	0.061061
28.920080	0.062062
29.054817	0.063063
29.191052	0.064064
29.324967	0.065065
29.458337	0.066066
29.590607	0.067067
29.723733	0.068068
29.855913	0.069069
29.984847	0.070070
30.116099	0.071071
30.252968	0.072072
30.390498	0.073073
30.527455	0.074074
30.658621	0.075075
30.794397	0.076076
30.930113	0.077077
31.063524	0.078078
31.198217	0.079079
31.330268	0.080080
31.464513	0.081081
31.600216	0.082082
31.731891	0.083083
31.861413	0.084084
31.990560	0.085085
32.120471	0.086086
32.250511	0.087087
32.375728	0.088088
32.499761	0.089089
32.628405	0.090090
32.758946	0.091091
32.888820	0.092092
33.018113	0.093093
33.147905	0.094094
33.277915	0.095095
33.408501	0.096096
33.539656	0.097097
33.669753	0.098098
33.799763	0.099099
33.929641	0.100100
34.058575	0.101101
34.187509	0.102102
34.319318	0.103103
34.449765	0.104104
34.579045	0.105105
34.708098	0.106106
34.836774	0.107107
34.964979	0.108108
35.093505	0.109109
35.222416	0.110110
35.351140	0.111111
35.480784	0.112112
35.611822	0.113113
35.745780	0.114114
35.877888	0.115115
36.011107	0.116116
36.146558	0.117117
36.282706	0.118118
36.419259	0.119119
36.556789	0.120120
36.691521	0.121121
36.825345	0.122122
36.964081	0.123123
37.103299	0.124124
37.241672	0.125125
37.380082	0.126126
37.518863	0.127127
37.657755	0.128128
37.790750	0.129129
37.929283	0.130130
38.070489	0.131131
38.211422	0.132132
38.354533	0.133133
38.496150	0.134134
38.637907	0.135135
38.781853	0.136136
38.926140	0.137137
39.069631	0.138138
39.212920	0.139139
39.356209	0.140140
39.502906	0.141141
39.649305	0.142142
39.794459	0.143143
39.940547	0.144144
40.087130	0.145145
40.233813	0.146146
40.381278	0.147147
40.527473	0.148148
40.674130	0.149149
40.823500	0.150150
40.972748	0.151151
41.122358	0.152152
41.272966	0.153153
41.424393	0.154154
41.574533	0.155155
41.725802	0.156156
41.878417	0.157157
42.030110	0.158158
42.180110	0.159159
42.332556	0.160160
42.486773	0.161161
42.638669	0.162162
42.793391	0.163163
42.947600	0.164164
43.102816	0.165165
43.258633	0.166166
43.414351	0.167167
43.570927	0.168168
43.727380	0.169169
43.885162	0.170170
44.042454	0.171171
44.201848	0.172172
44.360636	0.173173
44.520228	0.174174
44.680021	0.175175
44.839001	0.176176
44.998658	0.177177
45.158958	0.178178
45.317121	0.179179
45.475185	0.180180
45.639114	0.181181
45.800955	0.182182
45.964034	0.183183
46.128128	0.184184
46.288962	0.185185
46.451553	0.186186
46.616096	0.187187
46.782314	0.188188
46.946978	0.189189
47.112055	0.190190
47.277919	0.191191
47.442392	0.192192
47.607830	0.193193
47.772999	0.194194
47.939046	0.195195
48.105015	0.196196
48.272675	0.197197
48.439439	0.198198
48.606113	0.199199
48.775173	0.200200
48.943095	0.201201
49.111875	0.202202
49.280633	0.203203
49.449556	0.204204
49.619315	0.205205
49.788909	0.206206
49.959391	0.207207
50.130262	0.208208
50.300469	0.209209
50.470334	0.210210
50.642329	0.211211
50.813476	0.212212
50.985178	0.213213
51.157894	0.214214
51.329922	0.215215
51.501883	0.216216
51.674725	0.217217
51.848248	0.218218
52.020301	0.219219
52.193535	0.220220
52.367845	0.221221
52.543144	0.222222
52.716002	0.223223
52.890474	0.224224
53.065683	0.225225
53.241015	0.226226
53.415412	0.227227
53.590636	0.228228
53.764927	0.229229
53.941271	0.230230
54.117230	0.231231
54.291917	0.232232
54.468727	0.233233
54.645025	0.234234
54.820123	0.235235
54.996797	0.236236
55.172069	0.237237
55.347359	0.238238
55.523880	0.239239
55.698933	0.240240
55.874710	0.241241
56.050486	0.242242
56.225912	0.243243
56.403978	0.244244
56.581182	0.245245
56.756976	0.246246
56.932545	0.247247
57.108115	0.248248
57.283818	0.249249
57.460135	0.250250
57.636022	0.251251
57.812630	0.252252
57.990177	0.253253
58.166135	0.254254
58.343153	0.255255
58.520805	0.256256
58.696664	0.257257
58.874221	0.258258
59.049878	0.259259
59.224884	0.260260
59.402059	0.261261
59.577592	0.262262
59.754720	0.263263
59.929639	0.264264
60.104459	0.265265
60.279401	0.266266
60.454956	0.267267
60.630291	0.268268
60.805922	0.269269
60.982003	0.270270
61.156718	0.271271
61.331216	0.272272
61.506818	0.273273
61.682608	0.274274
61.857976	0.275275
62.033020	0.276276
62.208274	0.277277
62.382757	0.278278
62.557501	0.279279
62.731459	0.280280
62.904850	0.281281
63.077212	0.282282
63.249448	0.283283
63.422091	0.284284
63.594851	0.285285
63.767265	0.286286
63.940293	0.287287
64.113733	0.288288
64.285655	0.289289
64.457636	0.290290
64.629915	0.291291
64.802530	0.292292
64.973804	0.293293
65.145024	0.294294
65.316056	0.295295
65.488080	0.296296
65.657912	0.297297
65.828364	0.298298
65.998905	0.299299
66.169582	0.300300
66.340120	0.301301
66.510052	0.302302
66.680504	0.303303
66.850586	0.304304
67.018310	0.305305
67.186132	0.306306
67.355694	0.307307
67.524439	0.308308
67.692589	0.309309
67.860259	0.310310
68.028848	0.311311
68.195789	0.312312
68.362414	0.313313
68.528415	0.314314
68.695144	0.315315
68.862035	0.316316
69.028038	0.317317
69.194372	0.318318
69.359694	0.319319
69.523314	0.320320
69.687325	0.321321
69.851999	0.322322
70.017343	0.323323
70.180742	0.324324
70.344189	0.325325
70.507633	0.326326
70.670654	0.327327
70.833523	0.328328
70.996189	0.329329
71.157450	0.330330
71.318644	0.331331
71.479730	0.332332
71.640922	0.333333
71.802141	0.334334
71.962256	0.335335
72.122370	0.336336
72.281576	0.337337
72.440299	0.338338
72.599448	0.339339
72.757863	0.340340
72.916632	0.341341
73.074931	0.342342
73.232280	0.343343
73.390429	0.344344
73.548177	0.345345
73.706937	0.346346
73.863261	0.347347
74.019217	0.348348
74.174739	0.349349
74.331143	0.350350
74.486833	0.351351
74.640921	0.352352
74.797227	0.353353
74.951955	0.354354
75.105225	0.355355
75.258070	0.356356
75.411800	0.357357
75.566800	0.358358
75.718687	0.359359
75.870926	0.360360
76.022528	0.361361
76.173771	0.362362
76.325804	0.363363
76.476918	0.364364
76.627153	0.365365
76.778653	0.366366
76.930471	0.367367
77.079210	0.368368
77.227846	0.369369
77.376859	0.370370
77.525402	0.371371
77.674076	0.372372
77.823172	0.373373
77.970581	0.374374
78.117963	0.375375
78.264812	0.376376
78.411319	0.377377
78.557986	0.378378
78.704097	0.379379
78.849673	0.380380
78.995896	0.381381
79.141304	0.382382
79.288021	0.383383
79.432869	0.384384
79.575965	0.385385
79.720541	0.386386
79.865200	0.387387
80.010627	0.388388
80.153515	0.389389
80.296499	0.390390
80.441064	0.391391
80.583377	0.392392
80.727684	0.393393
80.871566	0.394394
81.013604	0.395395
81.154732	0.396396
81.295815	0.397397
81.436517	0.398398
81.577189	0.399399
81.717771	0.400400
81.859433	0.401401
81.999980	0.402402
82.141142	0.403403
82.280799	0.404404
82.420828	0.405405
82.560169	0.406406
82.699567	0.407407
82.837667	0.408408
82.975972	0.409409
83.114015	0.410410
83.253261	0.411411
83.391659	0.412412
83.528776	0.413413
83.665668	0.414414
83.804814	0.415415
83.941141	0.416416
84.077858	0.417417
84.215868	0.418418
84.351804	0.419419
84.489297	0.420420
84.624953	0.421421
84.761259	0.422422
84.898492	0.423423
85.033756	0.424424
85.168016	0.425425
85.302969	0.426426
85.437887	0.427427
85.571486	0.428428
85.704754	0.429429
85.838713	0.430430
85.972697	0.431431
86.105785	0.432432
86.238398	0.433433
86.371668	0.434434
86.505224	0.435435
86.637615	0.436436
86.770515	0.437437
86.903013	0.438438
87.034863	0.439439
87.166830	0.440440
87.298426	0.441441
87.429676	0.442442
87.560903	0.443443
87.691642	0.444444
87.823145	0.445445
87.954337	0.446446
88.085996	0.447447
88.216851	0.448448
88.347430	0.449449
88.478168	0.450450
88.607447	0.451451
88.737055	0.452452
88.866944	0.453453
88.996848	0.454454
89.126978	0.455455
89.256517	0.456456
89.385939	0.457457
89.515742	0.458458
89.645454	0.459459
89.774788	0.460460
89.904788	0.461461
90.034979	0.462462
90.163756	0.463463
90.291694	0.464464
90.420916	0.465465
90.550374	0.466466
90.678258	0.467467
90.808147	0.468468
90.936523	0.469469
91.065813	0.470470
91.194271	0.471471
91.323681	0.472472
91.452891	0.473473
91.581579	0.474474
91.710266	0.475475
91.839475	0.476476
91.969192	0.477477
92.098630	0.478478
92.228414	0.479479
92.356660	0.480480
92.485476	0.481481
92.614069	0.482482
92.742750	0.483483
92.871538	0.484484
93.001493	0.485485
93.130971	0.486486
93.259787	0.487487
93.388653	0.488488
93.517710	0.489489
93.647094	0.490490
93.776658	0.491491
93.906019	0.492492
94.037239	0.493493
94.168220	0.494494
94.298273	0.495495
94.430216	0.496496
94.560434	0.497497
94.691914	0.498498
94.823337	0.499499
94.955115	0.500501
95.086789	0.501502
95.218311	0.502503
95.349794	0.503504
95.481203	0.504505
95.612891	0.505506
95.743469	0.506507
95.874800	0.507508
96.006026	0.508509
96.137254	0.509510
96.268725	0.510511
96.400898	0.511512
96.533004	0.512513
96.664993	0.513514
96.798394	0.514515
96.930463	0.515516
97.063183	0.516517
97.195759	0.517518
97.327991	0.518519
97.460576	0.519520
97.593239	0.520521
97.726522	0.521522
97.860366	0.522523
97.993096	0.523524
98.126815	0.524525
98.261286	0.525526
98.394998	0.526527
98.528657	0.527528
98.663013	0.528529
98.796996	0.529530
98.930979	0.530531
99.064363	0.531532
99.198963	0.532533
99.332306	0.533534
99.465399	0.534535
99.598870	0.535536
99.732294	0.536537
99.865641	0.537538
99.999365	0.538539
100.132930	0.539540
100.266782	0.540541
100.400758	0.541542
100.533750	0.542543
100.666519	0.543544
100.799902	0.544545
100.933750	0.545546
101.068527	0.546547
101.202302	0.547548
101.335594	0.548549
101.468461	0.549550
101.601811	0.550551
101.736826	0.551552
101.870846	0.552553
102.003782	0.553554
102.137829	0.554555
102.271754	0.555556
102.406304	0.556557
102.539936	0.557558
102.672899	0.558559
102.807424	0.559560
102.941517	0.560561
103.074542	0.561562
103.208817	0.562563
103.343437	0.563564
103.477348	0.564565
103.612010	0.565566
103.746263	0.566567
103.880268	0.567568
104.015023	0.568569
104.149510	0.569570
104.283017	0.570571
104.417514	0.571572
104.551990	0.572573
104.686102	0.573574
104.820213	0.574575
104.954572	0.575576
105.088940	0.576577
105.223082	0.577578
105.358165	0.578579
105.492716	0.579580
105.627573	0.580581
105.762775	0.581582
105.896735	0.582583
106.030807	0.583584
106.165380	0.584585
106.300505	0.585586
106.436042	0.586587
106.570833	0.587588
106.705662	0.588589
106.841699	0.589590
106.977452	0.590591
107.112819	0.591592
107.248362	0.592593
107.383003	0.593594
107.518231	0.594595
107.653078	0.595596
107.788495	0.596597
107.922293	0.597598
108.059661	0.598599
108.194024	0.599600
108.331125	0.600601
108.467056	0.601602
108.602857	0.602603
108.740185	0.603604
108.876454	0.604605
109.012769	0.605606
109.148169	0.606607
109.284782	0.607608
109.418550	0.608609
109.553520	0.609610
109.688961	0.610611
109.822839	0.611612
109.956552	0.612613
110.090535	0.613614
110.226712	0.614615
110.362242	0.615616
110.497700	0.616617
110.633926	0.617618
110.770283	0.618619
110.907974	0.619620
111.043694	0.620621
111.179025	0.621622
111.315847	0.622623
111.451612	0.623624
111.586604	0.624625
111.722183	0.625626
111.857809	0.626627
111.995003	0.627628
112.132613	0.628629
112.270363	0.629630
112.406124	0.630631
112.542590	0.631632
112.677578	0.632633
112.815336	0.633634
112.950873	0.634635
113.087974	0.635636
113.223950	0.636637
113.363024	0.637638
113.499942	0.638639
113.639492	0.639640
113.777379	0.640641
113.913982	0.641642
114.051934	0.642643
114.188229	0.643644
114.324480	0.644645
114.462169	0.645646
114.599620	0.646647
114.735792	0.647648
114.870755	0.648649
115.008525	0.649650
115.144973	0.650651
115.282336	0.651652
115.419918	0.652653
115.555298	0.653654
115.692540	0.654655
115.829909	0.655656
115.965648	0.656657
116.102808	0.657658
116.241416	0.658659
116.378871	0.659660
116.514521	0.660661
116.651003	0.661662
116.788935	0.662663
116.925576	0.663664
117.062159	0.664665
117.199857	0.665666
117.336590	0.666667
117.475514	0.667668
117.611086	0.668669
117.746301	0.669670
117.882882	0.670671
118.019944	0.671672
118.157038	0.672673
118.295954	0.673674
118.431512	0.674675
118.568653	0.675676
118.707499	0.676677
118.843814	0.677678
118.983289	0.678679
119.119486	0.679680
119.256478	0.680681
119.393209	0.681682
119.530063	0.682683
119.667546	0.683684
119.808356	0.684685
119.946054	0.685686
120.082370	0.686687
120.220671	0.687688
120.359524	0.688689
120.498416	0.689690
120.638123	0.690691
120.775577	0.691692
120.915252	0.692693
121.053396	0.693694
121.189992	0.694695
121.328190	0.695696
121.467575	0.696697
121.604095	0.697698
121.741366	0.698699
121.878258	0.699700
122.016465	0.700701
122.154215	0.701702
122.291779	0.702703
122.430183	0.703704
122.568091	0.704705
122.707057	0.705706
122.847142	0.706707
122.986365	0.707708
123.124579	0.708709
123.262204	0.709710
123.401513	0.710711
123.540880	0.711712
123.679537	0.712713
123.817470	0.713714
123.954462	0.714715
124.092593	0.715716
124.230450	0.716717
124.367639	0.717718
124.506273	0.718719
124.644842	0.719720
124.782986	0.720721
124.921828	0.721722
125.061162	0.722723
125.199819	0.723724
125.337799	0.724725
125.477745	0.725726
125.618694	0.726727
125.758273	0.727728
125.897086	0.728729
126.037356	0.729730
126.178341	0.730731
126.318538	0.731732
126.457129	0.732733
126.595880	0.733734
126.735979	0.734735
126.876062	0.735736
127.015018	0.736737
127.153972	0.737738
127.295135	0.738739
127.435768	0.739740
127.577093	0.740741
127.717500	0.741742
127.858604	0.742743
127.998607	0.743744
128.138233	0.744745
128.279345	0.745746
128.420868	0.746747
128.562505	0.747748
128.704868	0.748749
128.846533	0.749750
128.988004	0.750751
129.129498	0.751752
129.270847	0.752753
129.411490	0.753754
129.553456	0.754755
129.696829	0.755756
129.837916	0.756757
129.980162	0.757758
