Crank_Angle_(deg)	MFB_(%)
10.000000	0.000000
10.140140	0.000000
10.280280	0.000000
10.420420	0.000000
10.560561	0.000000
10.700701	0.000000
10.840841	0.000000
10.980981	0.000000
11.121121	0.000000
11.261261	0.000000
11.401401	0.000000
11.541542	0.000000
11.681682	0.000000
11.821822	0.000000
11.961962	0.000000
12.102102	0.000000
12.242242	0.000000
12.382382	0.000000
12.522523	0.000000
12.662663	0.000001
12.802803	0.000001
12.942943	0.000001
13.083083	0.000001
13.223223	0.000001
13.363363	0.000001
13.503504	0.000001
13.643644	0.000001
13.783784	0.000001
13.923924	0.000001
14.064064	0.000001
14.204204	0.000001
14.344344	0.000001
14.484484	0.000001
14.624625	0.000001
14.764765	0.000001
14.904905	0.000001
15.045045	0.000001
15.185185	0.000001
15.325325	0.000001
15.465465	0.000001
15.605606	0.000001
15.745746	0.000001
15.885886	0.000001
16.026026	0.000001
16.166166	0.000001
16.306306	0.000001
16.446446	0.000001
16.586587	0.000001
16.726727	0.000002
16.866867	0.000002
17.007007	0.000002
17.147147	0.000002
17.287287	0.000002
17.427427	0.000002
17.567568	0.000002
17.707708	0.000002
17.847848	0.000002
17.987988	0.000002
18.128128	0.000002
18.268268	0.000002
18.408408	0.000002
18.548549	0.000002
18.688689	0.000002
18.828829	0.000002
18.968969	0.000002
19.109109	0.000002
19.249249	0.000002
19.389389	0.000002
19.529530	0.000002
19.669670	0.000002
19.809810	0.000002
19.949950	0.000002
20.090090	0.000002
20.230230	0.000002
20.370370	0.000003
20.510511	0.000003
20.650651	0.000003
20.790791	0.000003
20.930931	0.000003
21.071071	0.000003
21.211211	0.000003
21.351351	0.000003
21.491491	0.000003
21.631632	0.000003
21.771772	0.000003
21.911912	0.000003
22.052052	0.000003
22.192192	0.000003
22.332332	0.000003
22.472472	0.000003
22.612613	0.000003
22.752753	0.000003
22.892893	0.000003
23.033033	0.000003
23.173173	0.000003
23.313313	0.000003
23.453453	0.000003
23.593594	0.000003
23.733734	0.000003
23.873874	0.000003
24.014014	0.000003
24.154154	0.000003
24.294294	0.000004
24.434434	0.000004
24.574575	0.000004
24.714715	0.000004
24.854855	0.000004
24.994995	0.000004
25.135135	0.000004
25.275275	0.000004
25.415415	0.000004
25.555556	0.000004
25.695696	0.000004
25.835836	0.000004
25.975976	0.000004
26.116116	0.000004
26.256256	0.000004
26.396396	0.000004
26.536537	0.000004
26.676677	0.000004
26.816817	0.000004
26.956957	0.000004
27.097097	0.000004
27.237237	0.000004
27.377377	0.000004
27.517518	0.000004
27.657658	0.000004
27.797798	0.000004
27.937938	0.000004
28.078078	0.000004
28.218218	0.000004
28.358358	0.000004
28.498498	0.000004
28.638639	0.000004
28.778779	0.000004
28.918919	0.000004
29.059059	0.000004
29.199199	0.000004
29.339339	0.000004
29.479479	0.000004
29.619620	0.000004
29.759760	0.000004
29.899900	0.000004
30.040040	0.000011
30.180180	0.000342
30.320320	0.035681
30.460460	0.329642
30.600601	0.782754
30.740741	0.973118
30.880881	0.975081
31.021021	0.975956
31.161161	0.976970
31.301301	0.976970
31.441441	0.976980
31.581582	0.977297
31.721722	0.978145
31.861862	0.978368
32.002002	0.978368
32.142142	0.978588
32.282282	0.979174
32.422422	0.979629
32.562563	0.979650
32.702703	0.979786
32.842843	0.980097
32.982983	0.980547
33.123123	0.980793
33.263263	0.980871
33.403403	0.981049
33.543544	0.981389
33.683684	0.981693
33.823824	0.981827
33.963964	0.981929
34.104104	0.982135
34.244244	0.982449
34.384384	0.982682
34.524525	0.982810
34.664665	0.982959
34.804805	0.983188
34.944945	0.983431
35.085085	0.983588
35.225225	0.983700
35.365365	0.983866
35.505506	0.984100
35.645646	0.984313
35.785786	0.984464
35.925926	0.984600
36.066066	0.984777
36.206206	0.984977
36.346346	0.985138
36.486486	0.985259
36.626627	0.985396
36.766767	0.985577
36.906907	0.985769
37.047047	0.985927
37.187187	0.986063
37.327327	0.986208
37.467467	0.986375
37.607608	0.986528
37.747748	0.986656
37.887888	0.986778
38.028028	0.986924
38.168168	0.987088
38.308308	0.987242
38.448448	0.987376
38.588589	0.987506
38.728729	0.987645
38.868869	0.987786
39.009009	0.987914
39.149149	0.988032
39.289289	0.988157
39.429429	0.988295
39.569570	0.988436
39.709710	0.988568
39.849850	0.988692
39.989990	0.988816
40.130130	0.988939
40.270270	0.989059
40.410410	0.989173
40.550551	0.989287
40.690691	0.989407
40.830831	0.989531
40.970971	0.989653
41.111111	0.989770
41.251251	0.989884
41.391391	0.989997
41.531532	0.990108
41.671672	0.990214
41.811812	0.990319
41.951952	0.990426
42.092092	0.990536
42.232232	0.990647
42.372372	0.990756
42.512513	0.990862
42.652653	0.990965
42.792793	0.991067
42.932933	0.991166
43.073073	0.991263
43.213213	0.991360
43.353353	0.991458
43.493493	0.991558
43.633634	0.991658
43.773774	0.991755
43.913914	0.991850
44.054054	0.991944
44.194194	0.992035
44.334334	0.992125
44.474474	0.992214
44.614615	0.992302
44.754755	0.992392
44.894895	0.992481
45.035035	0.992571
45.175175	0.992658
45.315315	0.992744
45.455455	0.992828
45.595596	0.992911
45.735736	0.992992
45.875876	0.993072
46.016016	0.993152
46.156156	0.993233
46.296296	0.993313
46.436436	0.993393
46.576577	0.993471
46.716717	0.993549
46.856857	0.993624
46.996997	0.993699
47.137137	0.993772
47.277277	0.993845
47.417417	0.993917
47.557558	0.993989
47.697698	0.994061
47.837838	0.994133
47.977978	0.994203
48.118118	0.994272
48.258258	0.994341
48.398398	0.994408
48.538539	0.994474
48.678679	0.994539
48.818819	0.994604
48.958959	0.994669
49.099099	0.994734
49.239239	0.994798
49.379379	0.994861
49.519520	0.994923
49.659660	0.994984
49.799800	0.995044
49.939940	0.995104
50.080080	0.995162
50.220220	0.995221
50.360360	0.995277
50.500501	0.995332
50.640641	0.995389
50.780781	0.995446
50.920921	0.995501
51.061061	0.995556
51.201201	0.995611
51.341341	0.995664
51.481481	0.995717
51.621622	0.995769
51.761762	0.995822
51.901902	0.995873
52.042042	0.995924
52.182182	0.995974
52.322322	0.996024
52.462462	0.996073
52.602603	0.996122
52.742743	0.996170
52.882883	0.996217
53.023023	0.996263
53.163163	0.996310
53.303303	0.996356
53.443443	0.996401
53.583584	0.996446
53.723724	0.996490
53.863864	0.996534
54.004004	0.996577
54.144144	0.996620
54.284284	0.996662
54.424424	0.996703
54.564565	0.996744
54.704705	0.996785
54.844845	0.996825
54.984985	0.996865
55.125125	0.996904
55.265265	0.996943
55.405405	0.996982
55.545546	0.997020
55.685686	0.997057
55.825826	0.997094
55.965966	0.997130
56.106106	0.997167
56.246246	0.997202
56.386386	0.997237
56.526527	0.997272
56.666667	0.997307
56.806807	0.997341
56.946947	0.997374
57.087087	0.997407
57.227227	0.997440
57.367367	0.997472
57.507508	0.997504
57.647648	0.997536
57.787788	0.997567
57.927928	0.997598
58.068068	0.997628
58.208208	0.997658
58.348348	0.997688
58.488488	0.997717
58.628629	0.997746
58.768769	0.997775
58.908909	0.997803
59.049049	0.997831
59.189189	0.997859
59.329329	0.997886
59.469469	0.997912
59.609610	0.997939
59.749750	0.997966
59.889890	0.997991
60.030030	0.998017
60.170170	0.998042
60.310310	0.998067
60.450450	0.998092
60.590591	0.998116
60.730731	0.998140
60.870871	0.998164
61.011011	0.998187
61.151151	0.998210
61.291291	0.998233
61.431431	0.998256
61.571572	0.998278
61.711712	0.998300
61.851852	0.998322
61.991992	0.998343
62.132132	0.998364
62.272272	0.998385
62.412412	0.998406
62.552553	0.998426
62.692693	0.998446
62.832833	0.998466
62.972973	0.998485
63.113113	0.998505
63.253253	0.998524
63.393393	0.998542
63.533534	0.998561
63.673674	0.998579
63.813814	0.998597
63.953954	0.998615
64.094094	0.998633
64.234234	0.998650
64.374374	0.998667
64.514515	0.998684
64.654655	0.998701
64.794795	0.998718
64.934935	0.998734
65.075075	0.998750
65.215215	0.998766
65.355355	0.998782
65.495495	0.998797
65.635636	0.998812
65.775776	0.998827
65.915916	0.998842
66.056056	0.998857
66.196196	0.998871
66.336336	0.998886
66.476476	0.998900
66.616617	0.998914
66.756757	0.998927
66.896897	0.998941
67.037037	0.998954
67.177177	0.998967
67.317317	0.998980
67.457457	0.998993
67.597598	0.999006
67.737738	0.999018
67.877878	0.999031
68.018018	0.999043
68.158158	0.999055
68.298298	0.999067
68.438438	0.999079
68.578579	0.999090
68.718719	0.999101
68.858859	0.999113
68.998999	0.999124
69.139139	0.999135
69.279279	0.999145
69.419419	0.999156
69.559560	0.999167
69.699700	0.999177
69.839840	0.999187
69.979980	0.999197
70.120120	0.999207
70.260260	0.999217
70.400400	0.999227
70.540541	0.999237
70.680681	0.999246
70.820821	0.999255
70.960961	0.999265
71.101101	0.999274
71.241241	0.999283
71.381381	0.999292
71.521522	0.999300
71.661662	0.999309
71.801802	0.999317
71.941942	0.999326
72.082082	0.999334
72.222222	0.999342
72.362362	0.999350
72.502503	0.999358
72.642643	0.999366
72.782783	0.999374
72.922923	0.999382
73.063063	0.999389
73.203203	0.999397
73.343343	0.999404
73.483483	0.999411
73.623624	0.999419
73.763764	0.999426
73.903904	0.999433
74.044044	0.999440
74.184184	0.999446
74.324324	0.999453
74.464464	0.999460
74.604605	0.999466
74.744745	0.999473
74.884885	0.999479
75.025025	0.999485
75.165165	0.999492
75.305305	0.999498
75.445445	0.999504
75.585586	0.999510
75.725726	0.999516
75.865866	0.999521
76.006006	0.999527
76.146146	0.999533
76.286286	0.999538
76.426426	0.999544
76.566567	0.999549
76.706707	0.999555
76.846847	0.999560
76.986987	0.999565
77.127127	0.999570
77.267267	0.999576
77.407407	0.999581
77.547548	0.999586
77.687688	0.999590
77.827828	0.999595
77.967968	0.999600
78.108108	0.999605
78.248248	0.999609
78.388388	0.999614
78.528529	0.999619
78.668669	0.999623
78.808809	0.999627
78.948949	0.999632
79.089089	0.999636
79.229229	0.999640
79.369369	0.999644
79.509510	0.999649
79.649650	0.999653
79.789790	0.999657
79.929930	0.999661
80.070070	0.999665
80.210210	0.999668
80.350350	0.999672
80.490490	0.999676
80.630631	0.999680
80.770771	0.999683
80.910911	0.999687
81.051051	0.999691
81.191191	0.999694
81.331331	0.999698
81.471471	0.999701
81.611612	0.999705
81.751752	0.999708
81.891892	0.999711
82.032032	0.999714
82.172172	0.999718
82.312312	0.999721
82.452452	0.999724
82.592593	0.999727
82.732733	0.999730
82.872873	0.999733
83.013013	0.999736
83.153153	0.999739
83.293293	0.999742
83.433433	0.999745
83.573574	0.999748
83.713714	0.999750
83.853854	0.999753
83.993994	0.999756
84.134134	0.999759
84.274274	0.999761
84.414414	0.999764
84.554555	0.999767
84.694695	0.999769
84.834835	0.999772
84.974975	0.999774
85.115115	0.999777
85.255255	0.999779
85.395395	0.999781
85.535536	0.999784
85.675676	0.999786
85.815816	0.999788
85.955956	0.999791
86.096096	0.999793
86.236236	0.999795
86.376376	0.999797
86.516517	0.999799
86.656657	0.999802
86.796797	0.999804
86.936937	0.999806
87.077077	0.999808
87.217217	0.999810
87.357357	0.999812
87.497497	0.999814
87.637638	0.999816
87.777778	0.999818
87.917918	0.999820
88.058058	0.999821
88.198198	0.999823
88.338338	0.999825
88.478478	0.999827
88.618619	0.999829
88.758759	0.999831
88.898899	0.999832
89.039039	0.999834
89.179179	0.999836
89.319319	0.999837
89.459459	0.999839
89.599600	0.999841
89.739740	0.999842
89.879880	0.999844
90.020020	0.999846
90.160160	0.999847
90.300300	0.999849
90.440440	0.999850
90.580581	0.999852
90.720721	0.999853
90.860861	0.999855
91.001001	0.999856
91.141141	0.999857
91.281281	0.999859
91.421421	0.999860
91.561562	0.999862
91.701702	0.999863
91.841842	0.999864
91.981982	0.999866
92.122122	0.999867
92.262262	0.999868
92.402402	0.999870
92.542543	0.999871
92.682683	0.999872
92.822823	0.999873
92.962963	0.999875
93.103103	0.999876
93.243243	0.999877
93.383383	0.999878
93.523524	0.999879
93.663664	0.999881
93.803804	0.999882
93.943944	0.999883
94.084084	0.999884
94.224224	0.999885
94.364364	0.999886
94.504505	0.999887
94.644645	0.999888
94.784785	0.999889
94.924925	0.999890
95.065065	0.999891
95.205205	0.999892
95.345345	0.999893
95.485485	0.999894
95.625626	0.999895
95.765766	0.999896
95.905906	0.999897
96.046046	0.999898
96.186186	0.999899
96.326326	0.999900
96.466466	0.999901
96.606607	0.999902
96.746747	0.999903
96.886887	0.999904
97.027027	0.999904
97.167167	0.999905
97.307307	0.999906
97.447447	0.999907
97.587588	0.999908
97.727728	0.999909
97.867868	0.999910
98.008008	0.999910
98.148148	0.999911
98.288288	0.999912
98.428428	0.999913
98.568569	0.999913
98.708709	0.999914
98.848849	0.999915
98.988989	0.999916
99.129129	0.999916
99.269269	0.999917
99.409409	0.999918
99.549550	0.999919
99.689690	0.999919
99.829830	0.999920
99.969970	0.999921
100.110110	0.999921
100.250250	0.999922
100.390390	0.999923
100.530531	0.999923
100.670671	0.999924
100.810811	0.999925
100.950951	0.999925
101.091091	0.999926
101.231231	0.999927
101.371371	0.999927
101.511512	0.999928
101.651652	0.999928
101.791792	0.999929
101.931932	0.999930
102.072072	0.999930
102.212212	0.999931
102.352352	0.999931
102.492492	0.999932
102.632633	0.999932
102.772773	0.999933
102.912913	0.999934
103.053053	0.999934
103.193193	0.999935
103.333333	0.999935
103.473473	0.999936
103.613614	0.999936
103.753754	0.999937
103.893894	0.999937
104.034034	0.999938
104.174174	0.999938
104.314314	0.999939
104.454454	0.999939
104.594595	0.999940
104.734735	0.999940
104.874875	0.999941
105.015015	0.999941
105.155155	0.999942
105.295295	0.999942
105.435435	0.999942
105.575576	0.999943
105.715716	0.999943
105.855856	0.999944
105.995996	0.999944
106.136136	0.999945
106.276276	0.999945
106.416416	0.999945
106.556557	0.999946
106.696697	0.999946
106.836837	0.999947
106.976977	0.999947
107.117117	0.999947
107.257257	0.999948
107.397397	0.999948
107.537538	0.999949
107.677678	0.999949
107.817818	0.999949
107.957958	0.999950
108.098098	0.999950
108.238238	0.999951
108.378378	0.999951
108.518519	0.999951
108.658659	0.999952
108.798799	0.999952
108.938939	0.999952
109.079079	0.999953
109.219219	0.999953
109.359359	0.999953
109.499499	0.999954
109.639640	0.999954
109.779780	0.999954
109.919920	0.999955
110.060060	0.999955
110.200200	0.999955
110.340340	0.999956
110.480480	0.999956
110.620621	0.999956
110.760761	0.999957
110.900901	0.999957
111.041041	0.999957
111.181181	0.999957
111.321321	0.999958
111.461461	0.999958
111.601602	0.999958
111.741742	0.999959
111.881882	0.999959
112.022022	0.999959
112.162162	0.999960
112.302302	0.999960
112.442442	0.999960
112.582583	0.999960
112.722723	0.999961
112.862863	0.999961
113.003003	0.999961
113.143143	0.999961
113.283283	0.999962
113.423423	0.999962
113.563564	0.999962
113.703704	0.999962
113.843844	0.999963
113.983984	0.999963
114.124124	0.999963
114.264264	0.999963
114.404404	0.999964
114.544545	0.999964
114.684685	0.999964
114.824825	0.999964
114.964965	0.999965
115.105105	0.999965
115.245245	0.999965
115.385385	0.999965
115.525526	0.999966
115.665666	0.999966
115.805806	0.999966
115.945946	0.999966
116.086086	0.999966
116.226226	0.999967
116.366366	0.999967
116.506507	0.999967
116.646647	0.999967
116.786787	0.999967
116.926927	0.999968
117.067067	0.999968
117.207207	0.999968
117.347347	0.999968
117.487487	0.999968
117.627628	0.999969
117.767768	0.999969
117.907908	0.999969
118.048048	0.999969
118.188188	0.999969
118.328328	0.999970
118.468468	0.999970
118.608609	0.999970
118.748749	0.999970
118.888889	0.999970
119.029029	0.999971
119.169169	0.999971
119.309309	0.999971
119.449449	0.999971
119.589590	0.999971
119.729730	0.999971
119.869870	0.999972
120.010010	0.999972
120.150150	0.999972
120.290290	0.999972
120.430430	0.999972
120.570571	0.999972
120.710711	0.999973
120.850851	0.999973
120.990991	0.999973
121.131131	0.999973
121.271271	0.999973
121.411411	0.999973
121.551552	0.999973
121.691692	0.999974
121.831832	0.999974
121.971972	0.999974
122.112112	0.999974
122.252252	0.999974
122.392392	0.999974
122.532533	0.999975
122.672673	0.999975
122.812813	0.999975
122.952953	0.999975
123.093093	0.999975
123.233233	0.999975
123.373373	0.999975
123.513514	0.999976
123.653654	0.999976
123.793794	0.999976
123.933934	0.999976
124.074074	0.999976
124.214214	0.999976
124.354354	0.999976
124.494494	0.999976
124.634635	0.999977
124.774775	0.999977
124.914915	0.999977
125.055055	0.999977
125.195195	0.999977
125.335335	0.999977
125.475475	0.999977
125.615616	0.999977
125.755756	0.999978
125.895896	0.999978
126.036036	0.999978
126.176176	0.999978
126.316316	0.999978
126.456456	0.999978
126.596597	0.999978
126.736737	0.999978
126.876877	0.999979
127.017017	0.999979
127.157157	0.999979
127.297297	0.999979
127.437437	0.999979
127.577578	0.999979
127.717718	0.999979
127.857858	0.999979
127.997998	0.999979
128.138138	0.999980
128.278278	0.999980
128.418418	0.999980
128.558559	0.999980
128.698699	0.999980
128.838839	0.999980
128.978979	0.999980
129.119119	0.999980
129.259259	0.999980
129.399399	0.999980
129.539540	0.999981
129.679680	0.999981
129.819820	0.999981
129.959960	0.999981
130.100100	0.999981
130.240240	0.999981
130.380380	0.999981
130.520521	0.999981
130.660661	0.999981
130.800801	0.999981
130.940941	0.999981
131.081081	0.999982
131.221221	0.999982
131.361361	0.999982
131.501502	0.999982
131.641642	0.999982
131.781782	0.999982
131.921922	0.999982
132.062062	0.999982
132.202202	0.999982
132.342342	0.999982
132.482482	0.999982
132.622623	0.999983
132.762763	0.999983
132.902903	0.999983
133.043043	0.999983
133.183183	0.999983
133.323323	0.999983
133.463463	0.999983
133.603604	0.999983
133.743744	0.999983
133.883884	0.999983
134.024024	0.999983
134.164164	0.999983
134.304304	0.999983
134.444444	0.999984
134.584585	0.999984
134.724725	0.999984
134.864865	0.999984
135.005005	0.999984
135.145145	0.999984
135.285285	0.999984
135.425425	0.999984
135.565566	0.999984
135.705706	0.999984
135.845846	0.999984
135.985986	0.999984
136.126126	0.999984
136.266266	0.999984
136.406406	0.999985
136.546547	0.999985
136.686687	0.999985
136.826827	0.999985
136.966967	0.999985
137.107107	0.999985
137.247247	0.999985
137.387387	0.999985
137.527528	0.999985
137.667668	0.999985
137.807808	0.999985
137.947948	0.999985
138.088088	0.999985
138.228228	0.999985
138.368368	0.999985
138.508509	0.999986
138.648649	0.999986
138.788789	0.999986
138.928929	0.999986
139.069069	0.999986
139.209209	0.999986
139.349349	0.999986
139.489489	0.999986
139.629630	0.999986
139.769770	0.999986
139.909910	0.999986
140.050050	0.999986
140.190190	0.999986
140.330330	0.999986
140.470470	0.999986
140.610611	0.999986
140.750751	0.999987
140.890891	0.999987
141.031031	0.999987
141.171171	0.999987
141.311311	0.999987
141.451451	0.999987
141.591592	0.999987
141.731732	0.999987
141.871872	0.999987
142.012012	0.999987
142.152152	0.999987
142.292292	0.999987
142.432432	0.999987
142.572573	0.999987
142.712713	0.999987
142.852853	0.999987
142.992993	0.999987
143.133133	0.999987
143.273273	0.999987
143.413413	0.999988
143.553554	0.999988
143.693694	0.999988
143.833834	0.999988
143.973974	0.999988
144.114114	0.999988
144.254254	0.999988
144.394394	0.999988
144.534535	0.999988
144.674675	0.999988
144.814815	0.999988
144.954955	0.999988
145.095095	0.999988
145.235235	0.999988
145.375375	0.999988
145.515516	0.999988
145.655656	0.999988
145.795796	0.999988
145.935936	0.999988
146.076076	0.999988
146.216216	0.999988
146.356356	0.999989
146.496496	0.999989
146.636637	0.999989
146.776777	0.999989
146.916917	0.999989
147.057057	0.999989
147.197197	0.999989
147.337337	0.999989
147.477477	0.999989
147.617618	0.999989
147.757758	0.999989
147.897898	0.999989
148.038038	0.999989
148.178178	0.999989
148.318318	0.999989
148.458458	0.999989
148.598599	0.999989
148.738739	0.999989
148.878879	0.999989
149.019019	0.999989
149.159159	0.999989
149.299299	0.999989
149.439439	0.999989
149.579580	0.999989
149.719720	0.999990
149.859860	0.999990
150.000000	0.999990
